"File_250827_145425 - RawData"
"Wavelength nm."	"Abs."
350.00	-0.0143
351.00	-0.0203
352.00	-0.0248
353.00	-0.0296
354.00	-0.0350
355.00	-0.0393
356.00	-0.0431
357.00	-0.0473
358.00	-0.0516
359.00	-0.0535
360.00	-0.0558
361.00	-0.0585
362.00	-0.0602
363.00	-0.0629
364.00	-0.0630
365.00	-0.0645
366.00	-0.0654
367.00	-0.0649
368.00	-0.0630
369.00	-0.0604
370.00	-0.0569
371.00	-0.0540
372.00	-0.0490
373.00	-0.0444
374.00	-0.0394
375.00	-0.0355
376.00	-0.0317
377.00	-0.0290
378.00	-0.0267
379.00	-0.0250
380.00	-0.0231
381.00	-0.0221
382.00	-0.0202
383.00	-0.0197
384.00	-0.0191
385.00	-0.0184
386.00	-0.0182
387.00	-0.0181
388.00	-0.0176
389.00	-0.0178
390.00	-0.0180
391.00	-0.0179
392.00	-0.0172
393.00	-0.0176
394.00	-0.0162
395.00	-0.0155
396.00	-0.0145
397.00	-0.0128
398.00	-0.0113
399.00	-0.0092
400.00	-0.0075
401.00	-0.0060
402.00	-0.0047
403.00	-0.0031
404.00	-0.0026
405.00	-0.0017
406.00	-0.0014
407.00	-0.0013
408.00	-0.0014
409.00	-0.0017
410.00	-0.0020
411.00	-0.0025
412.00	-0.0029
413.00	-0.0031
414.00	-0.0038
415.00	-0.0042
416.00	-0.0046
417.00	-0.0048
418.00	-0.0053
419.00	-0.0057
420.00	-0.0062
421.00	-0.0062
422.00	-0.0065
423.00	-0.0070
424.00	-0.0072
425.00	-0.0075
426.00	-0.0075
427.00	-0.0083
428.00	-0.0081
429.00	-0.0083
430.00	-0.0086
431.00	-0.0088
432.00	-0.0088
433.00	-0.0090
434.00	-0.0088
435.00	-0.0092
436.00	-0.0092
437.00	-0.0092
438.00	-0.0090
439.00	-0.0091
440.00	-0.0093
441.00	-0.0092
442.00	-0.0093
443.00	-0.0092
444.00	-0.0091
445.00	-0.0092
446.00	-0.0088
447.00	-0.0085
448.00	-0.0087
449.00	-0.0085
450.00	-0.0083
451.00	-0.0082
452.00	-0.0078
453.00	-0.0077
454.00	-0.0073
455.00	-0.0070
456.00	-0.0066
457.00	-0.0062
458.00	-0.0060
459.00	-0.0057
460.00	-0.0053
461.00	-0.0044
462.00	-0.0041
463.00	-0.0037
464.00	-0.0030
465.00	-0.0029
466.00	-0.0019
467.00	-0.0013
468.00	-0.0005
469.00	0.0004
470.00	0.0012
471.00	0.0024
472.00	0.0033
473.00	0.0043
474.00	0.0056
475.00	0.0067
476.00	0.0080
477.00	0.0096
478.00	0.0106
479.00	0.0126
480.00	0.0143
481.00	0.0157
482.00	0.0173
483.00	0.0192
484.00	0.0207
485.00	0.0223
486.00	0.0244
487.00	0.0261
488.00	0.0282
489.00	0.0297
490.00	0.0318
491.00	0.0337
492.00	0.0358
493.00	0.0378
494.00	0.0400
495.00	0.0425
496.00	0.0449
497.00	0.0478
498.00	0.0506
499.00	0.0537
500.00	0.0571
501.00	0.0613
502.00	0.0650
503.00	0.0695
504.00	0.0743
505.00	0.0794
506.00	0.0848
507.00	0.0904
508.00	0.0963
509.00	0.1026
510.00	0.1090
511.00	0.1156
512.00	0.1226
513.00	0.1292
514.00	0.1356
515.00	0.1424
516.00	0.1489
517.00	0.1550
518.00	0.1613
519.00	0.1668
520.00	0.1723
521.00	0.1772
522.00	0.1819
523.00	0.1857
524.00	0.1891
525.00	0.1921
526.00	0.1945
527.00	0.1966
528.00	0.1984
529.00	0.2001
530.00	0.2020
531.00	0.2039
532.00	0.2063
533.00	0.2094
534.00	0.2133
535.00	0.2179
536.00	0.2239
537.00	0.2312
538.00	0.2389
539.00	0.2483
540.00	0.2583
541.00	0.2690
542.00	0.2809
543.00	0.2931
544.00	0.3059
545.00	0.3199
546.00	0.3341
547.00	0.3484
548.00	0.3632
549.00	0.3782
550.00	0.3927
551.00	0.4070
552.00	0.4210
553.00	0.4343
554.00	0.4464
555.00	0.4580
556.00	0.4674
557.00	0.4756
558.00	0.4812
559.00	0.4839
560.00	0.4839
561.00	0.4807
562.00	0.4742
563.00	0.4637
564.00	0.4483
565.00	0.4285
566.00	0.4049
567.00	0.3775
568.00	0.3466
569.00	0.3147
570.00	0.2814
571.00	0.2483
572.00	0.2172
573.00	0.1884
574.00	0.1603
575.00	0.1362
576.00	0.1147
577.00	0.0958
578.00	0.0793
579.00	0.0653
580.00	0.0526
581.00	0.0422
582.00	0.0334
583.00	0.0256
584.00	0.0192
585.00	0.0140
586.00	0.0094
587.00	0.0056
588.00	0.0027
589.00	0.0002
590.00	-0.0023
591.00	-0.0038
592.00	-0.0056
593.00	-0.0068
594.00	-0.0079
595.00	-0.0089
596.00	-0.0096
597.00	-0.0102
598.00	-0.0108
599.00	-0.0111
600.00	-0.0115
601.00	-0.0120
602.00	-0.0122
603.00	-0.0120
604.00	-0.0126
605.00	-0.0127
606.00	-0.0128
607.00	-0.0129
608.00	-0.0130
609.00	-0.0132
610.00	-0.0133
611.00	-0.0133
612.00	-0.0132
613.00	-0.0135
614.00	-0.0134
615.00	-0.0134
616.00	-0.0135
617.00	-0.0136
618.00	-0.0134
619.00	-0.0133
620.00	-0.0137
621.00	-0.0135
622.00	-0.0134
623.00	-0.0135
624.00	-0.0138
625.00	-0.0137
626.00	-0.0138
627.00	-0.0137
628.00	-0.0139
629.00	-0.0138
630.00	-0.0139
631.00	-0.0139
632.00	-0.0138
633.00	-0.0137
634.00	-0.0139
635.00	-0.0139
636.00	-0.0134
637.00	-0.0139
638.00	-0.0140
639.00	-0.0139
640.00	-0.0138
641.00	-0.0139
642.00	-0.0137
643.00	-0.0137
644.00	-0.0136
645.00	-0.0137
646.00	-0.0137
647.00	-0.0138
648.00	-0.0136
649.00	-0.0136
650.00	-0.0134
651.00	-0.0138
652.00	-0.0136
653.00	-0.0138
654.00	-0.0138
655.00	-0.0137
656.00	-0.0137
657.00	-0.0139
658.00	-0.0136
659.00	-0.0139
660.00	-0.0138
661.00	-0.0140
662.00	-0.0141
663.00	-0.0139
664.00	-0.0139
665.00	-0.0140
666.00	-0.0142
667.00	-0.0143
668.00	-0.0142
669.00	-0.0144
670.00	-0.0142
671.00	-0.0146
672.00	-0.0142
673.00	-0.0143
674.00	-0.0145
675.00	-0.0142
676.00	-0.0146
677.00	-0.0146
678.00	-0.0145
679.00	-0.0146
680.00	-0.0148
681.00	-0.0150
682.00	-0.0146
683.00	-0.0148
684.00	-0.0150
685.00	-0.0151
686.00	-0.0150
687.00	-0.0152
688.00	-0.0150
689.00	-0.0152
690.00	-0.0154
691.00	-0.0149
692.00	-0.0156
693.00	-0.0151
694.00	-0.0151
695.00	-0.0153
696.00	-0.0156
697.00	-0.0155
698.00	-0.0155
699.00	-0.0157
700.00	-0.0157
701.00	-0.0155
702.00	-0.0155
703.00	-0.0158
704.00	-0.0157
705.00	-0.0158
706.00	-0.0159
707.00	-0.0159
708.00	-0.0161
709.00	-0.0161
710.00	-0.0161
711.00	-0.0163
712.00	-0.0163
713.00	-0.0161
714.00	-0.0165
715.00	-0.0165
716.00	-0.0169
717.00	-0.0167
718.00	-0.0167
719.00	-0.0172
720.00	-0.0168
721.00	-0.0170
722.00	-0.0171
723.00	-0.0173
724.00	-0.0174
725.00	-0.0177
726.00	-0.0181
727.00	-0.0179
728.00	-0.0179
729.00	-0.0181
730.00	-0.0185
731.00	-0.0185
732.00	-0.0184
733.00	-0.0182
734.00	-0.0185
735.00	-0.0182
736.00	-0.0190
737.00	-0.0185
738.00	-0.0189
739.00	-0.0186
740.00	-0.0187
741.00	-0.0190
742.00	-0.0188
743.00	-0.0192
744.00	-0.0189
745.00	-0.0190
746.00	-0.0190
747.00	-0.0190
748.00	-0.0193
749.00	-0.0194
750.00	-0.0195
751.00	-0.0193
752.00	-0.0193
753.00	-0.0196
754.00	-0.0198
755.00	-0.0199
756.00	-0.0195
757.00	-0.0198
758.00	-0.0197
759.00	-0.0201
760.00	-0.0200
761.00	-0.0206
762.00	-0.0203
763.00	-0.0203
764.00	-0.0204
765.00	-0.0201
766.00	-0.0205
767.00	-0.0207
768.00	-0.0206
769.00	-0.0208
770.00	-0.0207
771.00	-0.0202
772.00	-0.0207
773.00	-0.0209
774.00	-0.0206
775.00	-0.0209
776.00	-0.0209
777.00	-0.0209
778.00	-0.0210
779.00	-0.0212
780.00	-0.0214
781.00	-0.0211
782.00	-0.0214
783.00	-0.0211
784.00	-0.0210
785.00	-0.0209
786.00	-0.0211
787.00	-0.0215
788.00	-0.0213
789.00	-0.0211
790.00	-0.0214
791.00	-0.0214
792.00	-0.0216
793.00	-0.0213
794.00	-0.0215
795.00	-0.0217
796.00	-0.0210
797.00	-0.0218
798.00	-0.0213
799.00	-0.0218
800.00	-0.0214
801.00	-0.0211
802.00	-0.0214
803.00	-0.0213
804.00	-0.0214
805.00	-0.0213
806.00	-0.0214
807.00	-0.0217
808.00	-0.0213
809.00	-0.0218
810.00	-0.0215
811.00	-0.0215
812.00	-0.0218
813.00	-0.0211
814.00	-0.0212
815.00	-0.0212
816.00	-0.0216
817.00	-0.0217
818.00	-0.0223
819.00	-0.0219
820.00	-0.0218
821.00	-0.0216
822.00	-0.0219
823.00	-0.0221
824.00	-0.0219
825.00	-0.0219
826.00	-0.0221
827.00	-0.0226
828.00	-0.0223
829.00	-0.0220
830.00	-0.0219
831.00	-0.0224
832.00	-0.0222
833.00	-0.0222
834.00	-0.0213
835.00	-0.0221
836.00	-0.0215
837.00	-0.0232
838.00	-0.0224
839.00	-0.0223
840.00	-0.0228
841.00	-0.0232
842.00	-0.0233
843.00	-0.0225
844.00	-0.0227
845.00	-0.0235
846.00	-0.0234
847.00	-0.0225
848.00	-0.0231
849.00	-0.0240
850.00	-0.0227
851.00	-0.0233
852.00	-0.0227
853.00	-0.0236
854.00	-0.0223
855.00	-0.0238
856.00	-0.0227
857.00	-0.0210
858.00	-0.0227
859.00	-0.0230
860.00	-0.0228
861.00	-0.0229
862.00	-0.0221
863.00	-0.0249
864.00	-0.0224
865.00	-0.0251
866.00	-0.0249
867.00	-0.0230
868.00	-0.0217
869.00	-0.0286
870.00	-0.0264
871.00	-0.0190
872.00	-0.0270
873.00	-0.0222
874.00	-0.0205
875.00	-0.0156
876.00	-0.0188
877.00	-0.0249
878.00	-0.0209
879.00	-0.0245
880.00	-0.0221
881.00	-0.0197
882.00	-0.0228
883.00	-0.0252
884.00	-0.0231
885.00	-0.0266
886.00	-0.0189
887.00	-0.0147
888.00	-0.0093
889.00	-0.0215
890.00	-0.0309
891.00	-0.0184
892.00	-0.0251
893.00	-0.0186
894.00	-0.0148
895.00	-0.0209
896.00	-0.0248
897.00	-0.0289
898.00	-0.0351
899.00	-0.0201
900.00	-0.0120
