"File_250827_163657 - RawData"
"Wavelength nm."	"Abs."
350.00	0.1756
351.00	0.1751
352.00	0.1765
353.00	0.1765
354.00	0.1777
355.00	0.1812
356.00	0.1844
357.00	0.1879
358.00	0.1940
359.00	0.1996
360.00	0.2072
361.00	0.2137
362.00	0.2197
363.00	0.2217
364.00	0.2198
365.00	0.2137
366.00	0.2038
367.00	0.1940
368.00	0.1831
369.00	0.1749
370.00	0.1678
371.00	0.1635
372.00	0.1613
373.00	0.1601
374.00	0.1596
375.00	0.1588
376.00	0.1571
377.00	0.1552
378.00	0.1532
379.00	0.1509
380.00	0.1491
381.00	0.1466
382.00	0.1450
383.00	0.1434
384.00	0.1421
385.00	0.1406
386.00	0.1398
387.00	0.1390
388.00	0.1386
389.00	0.1371
390.00	0.1370
391.00	0.1362
392.00	0.1352
393.00	0.1353
394.00	0.1340
395.00	0.1337
396.00	0.1330
397.00	0.1325
398.00	0.1314
399.00	0.1318
400.00	0.1316
401.00	0.1311
402.00	0.1315
403.00	0.1317
404.00	0.1319
405.00	0.1322
406.00	0.1331
407.00	0.1334
408.00	0.1340
409.00	0.1351
410.00	0.1357
411.00	0.1361
412.00	0.1355
413.00	0.1358
414.00	0.1352
415.00	0.1342
416.00	0.1324
417.00	0.1309
418.00	0.1286
419.00	0.1260
420.00	0.1229
421.00	0.1203
422.00	0.1169
423.00	0.1140
424.00	0.1106
425.00	0.1073
426.00	0.1044
427.00	0.1017
428.00	0.0989
429.00	0.0962
430.00	0.0935
431.00	0.0907
432.00	0.0891
433.00	0.0869
434.00	0.0852
435.00	0.0835
436.00	0.0817
437.00	0.0804
438.00	0.0791
439.00	0.0777
440.00	0.0767
441.00	0.0756
442.00	0.0748
443.00	0.0740
444.00	0.0728
445.00	0.0722
446.00	0.0711
447.00	0.0704
448.00	0.0698
449.00	0.0689
450.00	0.0683
451.00	0.0674
452.00	0.0666
453.00	0.0661
454.00	0.0651
455.00	0.0645
456.00	0.0633
457.00	0.0625
458.00	0.0616
459.00	0.0608
460.00	0.0600
461.00	0.0591
462.00	0.0584
463.00	0.0574
464.00	0.0566
465.00	0.0555
466.00	0.0548
467.00	0.0541
468.00	0.0531
469.00	0.0525
470.00	0.0520
471.00	0.0509
472.00	0.0506
473.00	0.0498
474.00	0.0492
475.00	0.0486
476.00	0.0481
477.00	0.0472
478.00	0.0470
479.00	0.0466
480.00	0.0461
481.00	0.0459
482.00	0.0454
483.00	0.0450
484.00	0.0448
485.00	0.0446
486.00	0.0444
487.00	0.0441
488.00	0.0440
489.00	0.0439
490.00	0.0435
491.00	0.0436
492.00	0.0433
493.00	0.0433
494.00	0.0431
495.00	0.0430
496.00	0.0428
497.00	0.0430
498.00	0.0428
499.00	0.0428
500.00	0.0428
501.00	0.0431
502.00	0.0429
503.00	0.0430
504.00	0.0433
505.00	0.0433
506.00	0.0432
507.00	0.0434
508.00	0.0435
509.00	0.0435
510.00	0.0437
511.00	0.0438
512.00	0.0439
513.00	0.0443
514.00	0.0444
515.00	0.0445
516.00	0.0449
517.00	0.0453
518.00	0.0453
519.00	0.0455
520.00	0.0458
521.00	0.0462
522.00	0.0467
523.00	0.0467
524.00	0.0471
525.00	0.0472
526.00	0.0479
527.00	0.0481
528.00	0.0485
529.00	0.0488
530.00	0.0493
531.00	0.0498
532.00	0.0497
533.00	0.0503
534.00	0.0512
535.00	0.0517
536.00	0.0523
537.00	0.0529
538.00	0.0537
539.00	0.0541
540.00	0.0549
541.00	0.0555
542.00	0.0563
543.00	0.0570
544.00	0.0579
545.00	0.0584
546.00	0.0594
547.00	0.0602
548.00	0.0613
549.00	0.0619
550.00	0.0630
551.00	0.0638
552.00	0.0647
553.00	0.0658
554.00	0.0669
555.00	0.0678
556.00	0.0686
557.00	0.0700
558.00	0.0713
559.00	0.0722
560.00	0.0732
561.00	0.0743
562.00	0.0754
563.00	0.0763
564.00	0.0772
565.00	0.0785
566.00	0.0797
567.00	0.0808
568.00	0.0818
569.00	0.0830
570.00	0.0841
571.00	0.0853
572.00	0.0864
573.00	0.0878
574.00	0.0891
575.00	0.0902
576.00	0.0916
577.00	0.0932
578.00	0.0945
579.00	0.0961
580.00	0.0978
581.00	0.0996
582.00	0.1011
583.00	0.1031
584.00	0.1049
585.00	0.1066
586.00	0.1084
587.00	0.1103
588.00	0.1122
589.00	0.1146
590.00	0.1164
591.00	0.1189
592.00	0.1211
593.00	0.1234
594.00	0.1255
595.00	0.1281
596.00	0.1308
597.00	0.1332
598.00	0.1357
599.00	0.1384
600.00	0.1411
601.00	0.1441
602.00	0.1470
603.00	0.1497
604.00	0.1528
605.00	0.1557
606.00	0.1587
607.00	0.1617
608.00	0.1647
609.00	0.1678
610.00	0.1712
611.00	0.1742
612.00	0.1776
613.00	0.1812
614.00	0.1845
615.00	0.1880
616.00	0.1916
617.00	0.1949
618.00	0.1983
619.00	0.2020
620.00	0.2054
621.00	0.2089
622.00	0.2123
623.00	0.2160
624.00	0.2195
625.00	0.2233
626.00	0.2267
627.00	0.2303
628.00	0.2339
629.00	0.2377
630.00	0.2413
631.00	0.2452
632.00	0.2487
633.00	0.2528
634.00	0.2564
635.00	0.2604
636.00	0.2643
637.00	0.2683
638.00	0.2721
639.00	0.2765
640.00	0.2806
641.00	0.2845
642.00	0.2896
643.00	0.2937
644.00	0.2985
645.00	0.3033
646.00	0.3081
647.00	0.3132
648.00	0.3185
649.00	0.3232
650.00	0.3286
651.00	0.3338
652.00	0.3393
653.00	0.3454
654.00	0.3512
655.00	0.3575
656.00	0.3637
657.00	0.3700
658.00	0.3767
659.00	0.3831
660.00	0.3897
661.00	0.3967
662.00	0.4038
663.00	0.4110
664.00	0.4177
665.00	0.4249
666.00	0.4325
667.00	0.4393
668.00	0.4470
669.00	0.4545
670.00	0.4620
671.00	0.4698
672.00	0.4774
673.00	0.4849
674.00	0.4931
675.00	0.5003
676.00	0.5078
677.00	0.5157
678.00	0.5236
679.00	0.5312
680.00	0.5386
681.00	0.5462
682.00	0.5534
683.00	0.5607
684.00	0.5675
685.00	0.5754
686.00	0.5823
687.00	0.5889
688.00	0.5958
689.00	0.6024
690.00	0.6087
691.00	0.6146
692.00	0.6197
693.00	0.6255
694.00	0.6306
695.00	0.6359
696.00	0.6411
697.00	0.6465
698.00	0.6514
699.00	0.6563
700.00	0.6613
701.00	0.6662
702.00	0.6721
703.00	0.6768
704.00	0.6821
705.00	0.6877
706.00	0.6933
707.00	0.7000
708.00	0.7060
709.00	0.7131
710.00	0.7205
711.00	0.7286
712.00	0.7378
713.00	0.7469
714.00	0.7573
715.00	0.7688
716.00	0.7807
717.00	0.7936
718.00	0.8077
719.00	0.8218
720.00	0.8389
721.00	0.8561
722.00	0.8743
723.00	0.8929
724.00	0.9136
725.00	0.9347
726.00	0.9564
727.00	0.9812
728.00	1.0056
729.00	1.0316
730.00	1.0589
731.00	1.0864
732.00	1.1159
733.00	1.1443
734.00	1.1730
735.00	1.2037
736.00	1.2361
737.00	1.2673
738.00	1.3008
739.00	1.3343
740.00	1.3670
741.00	1.4023
742.00	1.4378
743.00	1.4738
744.00	1.5081
745.00	1.5439
746.00	1.5772
747.00	1.6106
748.00	1.6440
749.00	1.6766
750.00	1.7085
751.00	1.7336
752.00	1.7629
753.00	1.7883
754.00	1.8132
755.00	1.8347
756.00	1.8539
757.00	1.8710
758.00	1.8825
759.00	1.8948
760.00	1.8991
761.00	1.9160
762.00	1.9155
763.00	1.9103
764.00	1.9003
765.00	1.8881
766.00	1.8725
767.00	1.8531
768.00	1.8258
769.00	1.7977
770.00	1.7634
771.00	1.7274
772.00	1.6899
773.00	1.6449
774.00	1.5980
775.00	1.5513
776.00	1.5024
777.00	1.4510
778.00	1.4002
779.00	1.3438
780.00	1.2874
781.00	1.2301
782.00	1.1735
783.00	1.1126
784.00	1.0548
785.00	0.9973
786.00	0.9419
787.00	0.8860
788.00	0.8337
789.00	0.7831
790.00	0.7335
791.00	0.6858
792.00	0.6415
793.00	0.5981
794.00	0.5585
795.00	0.5199
796.00	0.4819
797.00	0.4489
798.00	0.4155
799.00	0.3837
800.00	0.3561
801.00	0.3294
802.00	0.3050
803.00	0.2828
804.00	0.2614
805.00	0.2415
806.00	0.2239
807.00	0.2068
808.00	0.1921
809.00	0.1772
810.00	0.1640
811.00	0.1515
812.00	0.1399
813.00	0.1300
814.00	0.1211
815.00	0.1109
816.00	0.1035
817.00	0.0959
818.00	0.0886
819.00	0.0828
820.00	0.0771
821.00	0.0718
822.00	0.0659
823.00	0.0616
824.00	0.0565
825.00	0.0530
826.00	0.0489
827.00	0.0450
828.00	0.0417
829.00	0.0393
830.00	0.0362
831.00	0.0341
832.00	0.0312
833.00	0.0292
834.00	0.0278
835.00	0.0262
836.00	0.0247
837.00	0.0223
838.00	0.0222
839.00	0.0208
840.00	0.0189
841.00	0.0176
842.00	0.0182
843.00	0.0165
844.00	0.0147
845.00	0.0175
846.00	0.0160
847.00	0.0152
848.00	0.0150
849.00	0.0142
850.00	0.0132
851.00	0.0114
852.00	0.0155
853.00	0.0114
854.00	0.0132
855.00	0.0136
856.00	0.0111
857.00	0.0156
858.00	0.0132
859.00	0.0164
860.00	0.0191
861.00	0.0168
862.00	0.0154
863.00	0.0184
864.00	0.0188
865.00	0.0174
866.00	0.0123
867.00	0.0223
868.00	0.0144
869.00	0.0220
870.00	0.0253
871.00	0.0214
872.00	0.0282
873.00	0.0273
874.00	0.0296
875.00	0.0307
876.00	0.0325
877.00	0.0395
878.00	0.0367
879.00	0.0343
880.00	0.0302
881.00	0.0421
882.00	0.0439
883.00	0.0451
884.00	0.0482
885.00	0.0623
886.00	0.0478
887.00	0.0579
888.00	0.0707
889.00	0.0622
890.00	0.0576
891.00	0.0807
892.00	0.0735
893.00	0.0812
894.00	0.0809
895.00	0.0935
896.00	0.0953
897.00	0.1003
898.00	0.1016
899.00	0.0903
900.00	0.0999
